PE IR                   SPECTRUM    ASCII       PEDS        1.60        
  -1
7SOLVO.ASC
15/11/26
14:19:06.00
15/11/26
14:19:06.00
Admin

600.000000
5









SPECTRUM ONE,CPU32 MAIN 00.02.2010 04-MAY-2000 11:01:50
MIR TGS
MIR
OPTKBR
55861
0.200000

4.000000
STRONG
RATIO
SPECTRUM
MAGNITUDE

DOUBLE

COMBINED


0


#HDR
-1
-1
#GR
CM-1
%T
0.00002384185791015625
0.0
4000.000000
-1.000000
3401
8
92.866306
65.499983
#DATA
4000.000000	91.456874 
3999.000000	91.474006 
3998.000000	91.491097 
3997.000000	91.508307 
3996.000000	91.508080 
3995.000000	91.494630 
3994.000000	91.470358
3993.000000	91.434701
3992.000000	91.389950
3991.000000	91.346312
3990.000000	91.318935
3989.000000	91.317217
3988.000000	91.336708
3987.000000	91.362724
3986.000000	91.383145
3985.000000	91.396870
3984.000000	91.409445
3983.000000	91.422529
3982.000000	91.430762
3981.000000	91.428374
3980.000000	91.415844
3979.000000	91.399255
3978.000000	91.384984
3977.000000	91.375919
3976.000000	91.371174
3975.000000	91.367913
3974.000000	91.364520
3973.000000	91.362606
3972.000000	91.365020
3971.000000	91.371068
3970.000000	91.375695
3969.000000	91.375576
3968.000000	91.373960
3967.000000	91.377605
3966.000000	91.389458
3965.000000	91.406193
3964.000000	91.421122
3963.000000	91.428171
3962.000000	91.424674
3961.000000	91.413257
3960.000000	91.401443
3959.000000	91.396880
3958.000000	91.401770
3957.000000	91.412963
3956.000000	91.424599
3955.000000	91.430244
3954.000000	91.424511
3953.000000	91.407162
3952.000000	91.385158
3951.000000	91.368902
3950.000000	91.366108
3949.000000	91.377075
3948.000000	91.395303
3947.000000	91.413101
3946.000000	91.427016
3945.000000	91.436285
3944.000000	91.439107
3943.000000	91.433449
3942.000000	91.422464
3941.000000	91.417889
3940.000000	91.430084
3939.000000	91.451671
3938.000000	91.461318
3937.000000	91.447476
3936.000000	91.418874
3935.000000	91.392467
3934.000000	91.376258
3933.000000	91.368947
3932.000000	91.369227
3931.000000	91.375965
3930.000000	91.384113
3929.000000	91.385955
3928.000000	91.379327
3927.000000	91.371191
3926.000000	91.366880
3925.000000	91.360305
3924.000000	91.344178
3923.000000	91.328839
3922.000000	91.331836
3921.000000	91.352362
3920.000000	91.375139
3919.000000	91.392050
3918.000000	91.403012
3917.000000	91.404775
3916.000000	91.393597
3915.000000	91.377224
3914.000000	91.369098
3913.000000	91.371618
3912.000000	91.374749
3911.000000	91.370487
3910.000000	91.356892
3909.000000	91.340083
3908.000000	91.332052
3907.000000	91.347856
3906.000000	91.388344
3905.000000	91.425686
3904.000000	91.420434
3903.000000	91.374910
3902.000000	91.347830
3901.000000	91.385919
3900.000000	91.465443
3899.000000	91.522827
3898.000000	91.528541
3897.000000	91.502155
3896.000000	91.467928
3895.000000	91.433999
3894.000000	91.410727
3893.000000	91.412097
3892.000000	91.422842
3891.000000	91.401561
3890.000000	91.340181
3889.000000	91.290423
3888.000000	91.289578
3887.000000	91.320322
3886.000000	91.342749
3885.000000	91.331568
3884.000000	91.310023
3883.000000	91.330733
3882.000000	91.392144
3881.000000	91.438067
3880.000000	91.423672
3879.000000	91.362309
3878.000000	91.317893
3877.000000	91.326104
3876.000000	91.358663
3875.000000	91.372336
3874.000000	91.345274
3873.000000	91.295990
3872.000000	91.274774
3871.000000	91.299317
3870.000000	91.325736
3869.000000	91.314923
3868.000000	91.307689
3867.000000	91.364541
3866.000000	91.451887
3865.000000	91.492411
3864.000000	91.466341
3863.000000	91.415696
3862.000000	91.386698
3861.000000	91.386280
3860.000000	91.391652
3859.000000	91.387398
3858.000000	91.367443
3857.000000	91.340365
3856.000000	91.329372
3855.000000	91.360640
3854.000000	91.419714
3853.000000	91.429574
3852.000000	91.375411
3851.000000	91.374278
3850.000000	91.445673
3849.000000	91.486172
3848.000000	91.464432
3847.000000	91.425571
3846.000000	91.402840
3845.000000	91.391942
3844.000000	91.374951
3843.000000	91.343338
3842.000000	91.304024
3841.000000	91.278941
3840.000000	91.283437
3839.000000	91.315776
3838.000000	91.361224
3837.000000	91.408991
3836.000000	91.456586
3835.000000	91.499673
3834.000000	91.522305
3833.000000	91.512123
3832.000000	91.470556
3831.000000	91.413289
3830.000000	91.366876
3829.000000	91.348788
3828.000000	91.345717
3827.000000	91.324425
3826.000000	91.267879
3825.000000	91.211788
3824.000000	91.223642
3823.000000	91.333823
3822.000000	91.485828
3821.000000	91.554215
3820.000000	91.482510
3819.000000	91.396017
3818.000000	91.417607
3817.000000	91.506990
3816.000000	91.560955
3815.000000	91.533683
3814.000000	91.484123
3813.000000	91.478335
3812.000000	91.485290
3811.000000	91.457401
3810.000000	91.417693
3809.000000	91.415991
3808.000000	91.457854
3807.000000	91.487810
3806.000000	91.457059
3805.000000	91.402888
3804.000000	91.390632
3803.000000	91.419455
3802.000000	91.441628
3801.000000	91.407700
3800.000000	91.335005
3799.000000	91.314735
3798.000000	91.352956
3797.000000	91.366963
3796.000000	91.326278
3795.000000	91.277919
3794.000000	91.283012
3793.000000	91.346085
3792.000000	91.419096
3791.000000	91.462862
3790.000000	91.477665
3789.000000	91.480913
3788.000000	91.485197
3787.000000	91.492071
3786.000000	91.493261
3785.000000	91.475596
3784.000000	91.438101
3783.000000	91.403786
3782.000000	91.399875
3781.000000	91.423897
3780.000000	91.441324
3779.000000	91.420606
3778.000000	91.372246
3777.000000	91.344586
3776.000000	91.362388
3775.000000	91.403754
3774.000000	91.441057
3773.000000	91.473167
3772.000000	91.504262
3771.000000	91.514845
3770.000000	91.478303
3769.000000	91.412373
3768.000000	91.379625
3767.000000	91.414014
3766.000000	91.473359
3765.000000	91.494187
3764.000000	91.469567
3763.000000	91.448689
3762.000000	91.465287
3761.000000	91.501828
3760.000000	91.525810
3759.000000	91.525503
3758.000000	91.503427
3757.000000	91.462214
3756.000000	91.402117
3755.000000	91.333442
3754.000000	91.273411
3753.000000	91.241512
3752.000000	91.257439
3751.000000	91.313464
3750.000000	91.361987
3749.000000	91.382909
3748.000000	91.416572
3747.000000	91.502487
3746.000000	91.627586
3745.000000	91.721575
3744.000000	91.703437
3743.000000	91.604022
3742.000000	91.557728
3741.000000	91.565752
3740.000000	91.512880
3739.000000	91.384209
3738.000000	91.256190
3737.000000	91.190723
3736.000000	91.191004
3735.000000	91.221526
3734.000000	91.257369
3733.000000	91.301441
3732.000000	91.346277
3731.000000	91.377313
3730.000000	91.406055
3729.000000	91.443772
3728.000000	91.472882
3727.000000	91.466916
3726.000000	91.423338
3725.000000	91.370674
3724.000000	91.343593
3723.000000	91.347405
3722.000000	91.368024
3721.000000	91.400008
3720.000000	91.444958
3719.000000	91.493124
3718.000000	91.518507
3717.000000	91.500751
3716.000000	91.446536
3715.000000	91.384867
3714.000000	91.342985
3713.000000	91.339270
3712.000000	91.375997
3711.000000	91.422445
3710.000000	91.449564
3709.000000	91.467253
3708.000000	91.486063
3707.000000	91.495722
3706.000000	91.490215
3705.000000	91.481465
3704.000000	91.483162
3703.000000	91.495449
3702.000000	91.505573
3701.000000	91.506659
3700.000000	91.512827
3699.000000	91.540383
3698.000000	91.573314
3697.000000	91.576200
3696.000000	91.543316
3695.000000	91.512180
3694.000000	91.519819
3693.000000	91.558898
3692.000000	91.592184
3691.000000	91.594296
3690.000000	91.571196
3689.000000	91.544737
3688.000000	91.531494
3687.000000	91.546454
3686.000000	91.589700
3685.000000	91.627257
3684.000000	91.623889
3683.000000	91.581735
3682.000000	91.526174
3681.000000	91.471636
3680.000000	91.414253
3679.000000	91.366234
3678.000000	91.378560
3677.000000	91.486410
3676.000000	91.620825
3675.000000	91.637863
3674.000000	91.540484
3673.000000	91.492254
3672.000000	91.549695
3671.000000	91.641851
3670.000000	91.698128
3669.000000	91.674991
3668.000000	91.613000
3667.000000	91.581856
3666.000000	91.572977
3665.000000	91.553188
3664.000000	91.517727
3663.000000	91.472907
3662.000000	91.425654
3661.000000	91.389816
3660.000000	91.385380
3659.000000	91.423549
3658.000000	91.487579
3657.000000	91.529675
3656.000000	91.507907
3655.000000	91.436108
3654.000000	91.375221
3653.000000	91.351275
3652.000000	91.339650
3651.000000	91.326386
3650.000000	91.323604
3649.000000	91.325264
3648.000000	91.317580
3647.000000	91.313262
3646.000000	91.322805
3645.000000	91.341027
3644.000000	91.358709
3643.000000	91.366501
3642.000000	91.357827
3641.000000	91.338612
3640.000000	91.325156
3639.000000	91.327684
3638.000000	91.339985
3637.000000	91.354653
3636.000000	91.372239
3635.000000	91.384262
3634.000000	91.369081
3633.000000	91.321688
3632.000000	91.274812
3631.000000	91.269106
3630.000000	91.317039
3629.000000	91.379703
3628.000000	91.391243
3627.000000	91.376590
3626.000000	91.398238
3625.000000	91.415870
3624.000000	91.377686
3623.000000	91.306159
3622.000000	91.250749
3621.000000	91.235839
3620.000000	91.248794
3619.000000	91.257202
3618.000000	91.247192
3617.000000	91.245236
3616.000000	91.278388
3615.000000	91.339249
3614.000000	91.401992
3613.000000	91.443650
3612.000000	91.459180
3611.000000	91.460190
3610.000000	91.451412
3609.000000	91.425790
3608.000000	91.383677
3607.000000	91.338154
3606.000000	91.304891
3605.000000	91.287766
3604.000000	91.277901
3603.000000	91.271552
3602.000000	91.273010
3601.000000	91.281489
3600.000000	91.290994
3599.000000	91.304297
3598.000000	91.331843
3597.000000	91.371982
3596.000000	91.406156
3595.000000	91.407378
3594.000000	91.363449
3593.000000	91.294464
3592.000000	91.239203
3591.000000	91.218991
3590.000000	91.229998
3589.000000	91.258535
3588.000000	91.294526
3587.000000	91.330066
3586.000000	91.365842
3585.000000	91.408989
3584.000000	91.444406
3583.000000	91.445038
3582.000000	91.411240
3581.000000	91.372943
3580.000000	91.361450
3579.000000	91.386809
3578.000000	91.435692
3577.000000	91.484267
3576.000000	91.516743
3575.000000	91.530444
3574.000000	91.526784
3573.000000	91.501792
3572.000000	91.450994
3571.000000	91.381615
3570.000000	91.319399
3569.000000	91.300178
3568.000000	91.339896
3567.000000	91.400565
3566.000000	91.422855
3565.000000	91.406197
3564.000000	91.390995
3563.000000	91.392720
3562.000000	91.401715
3561.000000	91.406913
3560.000000	91.405195
3559.000000	91.401730
3558.000000	91.403293
3557.000000	91.410104
3556.000000	91.416503
3555.000000	91.418643
3554.000000	91.414863
3553.000000	91.399702
3552.000000	91.366131
3551.000000	91.319735
3550.000000	91.281324
3549.000000	91.270640
3548.000000	91.293074
3547.000000	91.338889
3546.000000	91.384914
3545.000000	91.407657
3544.000000	91.405380
3543.000000	91.399130
3542.000000	91.408247
3541.000000	91.431716
3540.000000	91.452726
3539.000000	91.458425
3538.000000	91.450633
3537.000000	91.437303
3536.000000	91.419285
3535.000000	91.394124
3534.000000	91.368670
3533.000000	91.356044
3532.000000	91.361979
3531.000000	91.380469
3530.000000	91.402780
3529.000000	91.423136
3528.000000	91.436725
3527.000000	91.440207
3526.000000	91.439667
3525.000000	91.448172
3524.000000	91.468246
3523.000000	91.482921
3522.000000	91.474449
3521.000000	91.448125
3520.000000	91.424828
3519.000000	91.413639
3518.000000	91.403436
3517.000000	91.383467
3516.000000	91.362632
3515.000000	91.359235
3514.000000	91.376258
3513.000000	91.396460
3512.000000	91.402549
3511.000000	91.396016
3510.000000	91.394042
3509.000000	91.408760
3508.000000	91.434195
3507.000000	91.454019
3506.000000	91.456655
3505.000000	91.443342
3504.000000	91.425953
3503.000000	91.415246
3502.000000	91.413070
3501.000000	91.417163
3500.000000	91.427089
3499.000000	91.442616
3498.000000	91.460745
3497.000000	91.475827
3496.000000	91.482872
3495.000000	91.480781
3494.000000	91.472694
3493.000000	91.464229
3492.000000	91.460165
3491.000000	91.459206
3490.000000	91.452024
3489.000000	91.429177
3488.000000	91.393388
3487.000000	91.359780
3486.000000	91.339918
3485.000000	91.329775
3484.000000	91.318752
3483.000000	91.308382
3482.000000	91.314196
3481.000000	91.345556
3480.000000	91.390502
3479.000000	91.425932
3478.000000	91.437729
3477.000000	91.426823
3476.000000	91.402037
3475.000000	91.374397
3474.000000	91.357623
3473.000000	91.364652
3472.000000	91.396000
3471.000000	91.433922
3470.000000	91.454573
3469.000000	91.447893
3468.000000	91.423685
3467.000000	91.399023
3466.000000	91.383720
3465.000000	91.377974
3464.000000	91.377908
3463.000000	91.379963
3462.000000	91.382668
3461.000000	91.387816
3460.000000	91.399212
3459.000000	91.417264
3458.000000	91.434832
3457.000000	91.441246
3456.000000	91.432462
3455.000000	91.417749
3454.000000	91.414756
3453.000000	91.435249
3452.000000	91.475424
3451.000000	91.520985
3450.000000	91.560176
3449.000000	91.587606
3448.000000	91.597715
3447.000000	91.582287
3446.000000	91.541726
3445.000000	91.494246
3444.000000	91.464737
3443.000000	91.465387
3442.000000	91.489532
3441.000000	91.521441
3440.000000	91.548443
3439.000000	91.563596
3438.000000	91.563116
3437.000000	91.547783
3436.000000	91.525167
3435.000000	91.505032
3434.000000	91.491172
3433.000000	91.479345
3432.000000	91.464648
3431.000000	91.449353
3430.000000	91.442705
3429.000000	91.453605
3428.000000	91.483550
3427.000000	91.523278
3426.000000	91.554814
3425.000000	91.560971
3424.000000	91.538281
3423.000000	91.501168
3422.000000	91.470803
3421.000000	91.459537
3420.000000	91.466601
3419.000000	91.484862
3418.000000	91.504915
3417.000000	91.513777
3416.000000	91.500179
3415.000000	91.466709
3414.000000	91.431808
3413.000000	91.413505
3412.000000	91.413178
3411.000000	91.418919
3410.000000	91.420688
3409.000000	91.415981
3408.000000	91.403514
3407.000000	91.381518
3406.000000	91.355868
3405.000000	91.343030
3404.000000	91.357797
3403.000000	91.398749
3402.000000	91.449507
3401.000000	91.492928
3400.000000	91.519170
3399.000000	91.521335
3398.000000	91.493025
3397.000000	91.436822
3396.000000	91.372078
3395.000000	91.326954
3394.000000	91.319809
3393.000000	91.346578
3392.000000	91.383965
3391.000000	91.406739
3390.000000	91.405759
3389.000000	91.392294
3388.000000	91.386262
3387.000000	91.398845
3386.000000	91.423783
3385.000000	91.444176
3384.000000	91.447294
3383.000000	91.433731
3382.000000	91.415702
3381.000000	91.407960
3380.000000	91.417030
3379.000000	91.435347
3378.000000	91.447691
3377.000000	91.446014
3376.000000	91.436041
3375.000000	91.426840
3374.000000	91.417705
3373.000000	91.400774
3372.000000	91.375054
3371.000000	91.351361
3370.000000	91.341675
3369.000000	91.347872
3368.000000	91.362394
3367.000000	91.376194
3366.000000	91.383402
3365.000000	91.381694
3364.000000	91.372602
3363.000000	91.361800
3362.000000	91.356269
3361.000000	91.358814
3360.000000	91.364373
3359.000000	91.361886
3358.000000	91.342436
3357.000000	91.309163
3356.000000	91.279263
3355.000000	91.271865
3354.000000	91.290677
3353.000000	91.320099
3352.000000	91.340152
3351.000000	91.344628
3350.000000	91.344140
3349.000000	91.353446
3348.000000	91.377477
3347.000000	91.407745
3346.000000	91.429296
3345.000000	91.431549
3344.000000	91.415477
3343.000000	91.391508
3342.000000	91.369691
3341.000000	91.352346
3340.000000	91.336842
3339.000000	91.323363
3338.000000	91.316680
3337.000000	91.319562
3336.000000	91.326613
3335.000000	91.326925
3334.000000	91.313553
3333.000000	91.290527
3332.000000	91.270811
3331.000000	91.266025
3330.000000	91.276235
3329.000000	91.289401
3328.000000	91.291255
3327.000000	91.275997
3326.000000	91.248716
3325.000000	91.221150
3324.000000	91.206759
3323.000000	91.215020
3322.000000	91.244249
3321.000000	91.280213
3320.000000	91.306531
3319.000000	91.317757
3318.000000	91.319807
3317.000000	91.318621
3316.000000	91.314088
3315.000000	91.306137
3314.000000	91.300450
3313.000000	91.303019
3312.000000	91.311606
3311.000000	91.316648
3310.000000	91.309706
3309.000000	91.289215
3308.000000	91.260777
3307.000000	91.234883
3306.000000	91.221355
3305.000000	91.221465
3304.000000	91.226432
3303.000000	91.227062
3302.000000	91.223832
3301.000000	91.224461
3300.000000	91.233742
3299.000000	91.250741
3298.000000	91.273862
3297.000000	91.301155
3296.000000	91.324637
3295.000000	91.331925
3294.000000	91.318182
3293.000000	91.292102
3292.000000	91.265930
3291.000000	91.243182
3290.000000	91.221146
3289.000000	91.201486
3288.000000	91.190639
3287.000000	91.189901
3286.000000	91.191575
3285.000000	91.187952
3284.000000	91.180908
3283.000000	91.179609
3282.000000	91.190300
3281.000000	91.211000
3280.000000	91.235349
3279.000000	91.258659
3278.000000	91.279315
3277.000000	91.296243
3276.000000	91.307049
3275.000000	91.308632
3274.000000	91.297995
3273.000000	91.272613
3272.000000	91.233768
3271.000000	91.192222
3270.000000	91.166826
3269.000000	91.170406
3268.000000	91.195902
3267.000000	91.222359
3266.000000	91.237595
3265.000000	91.249796
3264.000000	91.272337
3263.000000	91.302208
3262.000000	91.321471
3261.000000	91.318454
3260.000000	91.299289
3259.000000	91.277846
3258.000000	91.262045
3257.000000	91.252719
3256.000000	91.248438
3255.000000	91.246132
3254.000000	91.241084
3253.000000	91.231872
3252.000000	91.223965
3251.000000	91.225067
3250.000000	91.238357
3249.000000	91.261629
3248.000000	91.288893
3247.000000	91.309631
3246.000000	91.311735
3245.000000	91.292731
3244.000000	91.266858
3243.000000	91.253583
3242.000000	91.259135
3241.000000	91.275150
3240.000000	91.294027
3239.000000	91.316947
3238.000000	91.343539
3237.000000	91.361735
3236.000000	91.357094
3235.000000	91.330950
3234.000000	91.301589
3233.000000	91.285578
3232.000000	91.282712
3231.000000	91.281030
3230.000000	91.271797
3229.000000	91.255397
3228.000000	91.235613
3227.000000	91.214529
3226.000000	91.194415
3225.000000	91.179974
3224.000000	91.175275
3223.000000	91.179846
3222.000000	91.190215
3221.000000	91.204272
3220.000000	91.221060
3219.000000	91.236594
3218.000000	91.244543
3217.000000	91.243296
3216.000000	91.238739
3215.000000	91.236212
3214.000000	91.231248
3213.000000	91.213351
3212.000000	91.180943
3211.000000	91.149614
3210.000000	91.142054
3209.000000	91.168662
3208.000000	91.217638
3207.000000	91.263173
3206.000000	91.283548
3205.000000	91.275125
3204.000000	91.253185
3203.000000	91.238665
3202.000000	91.240592
3201.000000	91.250332
3200.000000	91.253633
3199.000000	91.247048
3198.000000	91.239635
3197.000000	91.239550
3196.000000	91.244772
3195.000000	91.249385
3194.000000	91.252819
3193.000000	91.256747
3192.000000	91.255571
3191.000000	91.237620
3190.000000	91.198608
3189.000000	91.150749
3188.000000	91.115934
3187.000000	91.109365
3186.000000	91.127855
3185.000000	91.151106
3184.000000	91.156108
3183.000000	91.135812
3182.000000	91.105635
3181.000000	91.089224
3180.000000	91.096825
3179.000000	91.118781
3178.000000	91.138842
3177.000000	91.149451
3176.000000	91.153126
3175.000000	91.155169
3174.000000	91.159982
3173.000000	91.170824
3172.000000	91.187076
3171.000000	91.201696
3170.000000	91.205001
3169.000000	91.192309
3168.000000	91.168107
3167.000000	91.144860
3166.000000	91.138286
3165.000000	91.158427
3164.000000	91.199259
3163.000000	91.238239
3162.000000	91.252031
3161.000000	91.235787
3160.000000	91.206916
3159.000000	91.190578
3158.000000	91.201081
3157.000000	91.232847
3156.000000	91.264845
3155.000000	91.275798
3154.000000	91.261164
3153.000000	91.237298
3152.000000	91.226051
3151.000000	91.233156
3150.000000	91.242644
3149.000000	91.232905
3148.000000	91.197348
3147.000000	91.150698
3146.000000	91.118158
3145.000000	91.118331
3144.000000	91.151815
3143.000000	91.201499
3142.000000	91.243224
3141.000000	91.259332
3140.000000	91.246741
3139.000000	91.215793
3138.000000	91.181610
3137.000000	91.153325
3136.000000	91.129085
3135.000000	91.102647
3134.000000	91.076071
3133.000000	91.062682
3132.000000	91.073553
3131.000000	91.103170
3130.000000	91.133386
3129.000000	91.151205
3128.000000	91.159108
3127.000000	91.167598
3126.000000	91.180385
3125.000000	91.188126
3124.000000	91.176359
3123.000000	91.140856
3122.000000	91.095841
3121.000000	91.064075
3120.000000	91.056190
3119.000000	91.061715
3118.000000	91.062637
3117.000000	91.052471
3116.000000	91.037095
3115.000000	91.020257
3114.000000	90.998255
3113.000000	90.970721
3112.000000	90.947597
3111.000000	90.939808
3110.000000	90.947375
3109.000000	90.960988
3108.000000	90.971484
3107.000000	90.973198
3106.000000	90.961907
3105.000000	90.936789
3104.000000	90.904739
3103.000000	90.877041
3102.000000	90.859668
3101.000000	90.850359
3100.000000	90.846396
3099.000000	90.849977
3098.000000	90.862619
3097.000000	90.879117
3096.000000	90.892121
3095.000000	90.900636
3094.000000	90.908554
3093.000000	90.914418
3092.000000	90.907636
3091.000000	90.877281
3090.000000	90.822013
3089.000000	90.749101
3088.000000	90.666286
3087.000000	90.578807
3086.000000	90.494210
3085.000000	90.425465
3084.000000	90.385485
3083.000000	90.378455
3082.000000	90.397761
3081.000000	90.432221
3080.000000	90.473275
3079.000000	90.515846
3078.000000	90.554383
3077.000000	90.581782
3076.000000	90.594429
3075.000000	90.597788
3074.000000	90.604551
3073.000000	90.625298
3072.000000	90.660715
3071.000000	90.702873
3070.000000	90.742410
3069.000000	90.772711
3068.000000	90.788465
3067.000000	90.784177
3066.000000	90.757362
3065.000000	90.713454
3064.000000	90.665658
3063.000000	90.627381
3062.000000	90.602220
3061.000000	90.580023
3060.000000	90.543470
3059.000000	90.480497
3058.000000	90.391331
3057.000000	90.283860
3056.000000	90.164215
3055.000000	90.034703
3054.000000	89.900733
3053.000000	89.776067
3052.000000	89.678751
3051.000000	89.621299
3050.000000	89.602841
3049.000000	89.608538
3048.000000	89.618381
3047.000000	89.622002
3046.000000	89.627415
3045.000000	89.652767
3044.000000	89.707654
3043.000000	89.784302
3042.000000	89.867704
3041.000000	89.949388
3040.000000	90.027425
3039.000000	90.098143
3038.000000	90.155688
3037.000000	90.199313
3036.000000	90.235243
3035.000000	90.270915
3034.000000	90.311853
3033.000000	90.363381
3032.000000	90.427895
3031.000000	90.497740
3030.000000	90.557516
3029.000000	90.598576
3028.000000	90.627347
3027.000000	90.655351
3026.000000	90.683752
3025.000000	90.701865
3024.000000	90.701026
3023.000000	90.686964
3022.000000	90.677066
3021.000000	90.685641
3020.000000	90.711001
3019.000000	90.735592
3018.000000	90.738978
3017.000000	90.711024
3016.000000	90.652219
3015.000000	90.563604
3014.000000	90.442371
3013.000000	90.290561
3012.000000	90.123509
3011.000000	89.963137
3010.000000	89.823167
3009.000000	89.706025
3008.000000	89.615079
3007.000000	89.564432
3006.000000	89.571651
3005.000000	89.640664
3004.000000	89.753993
3003.000000	89.882700
3002.000000	90.003043
3001.000000	90.104404
3000.000000	90.186532
2999.000000	90.254287
2998.000000	90.314549
2997.000000	90.372989
2996.000000	90.429921
2995.000000	90.479719
2994.000000	90.515853
2993.000000	90.535903
2992.000000	90.541287
2991.000000	90.534832
2990.000000	90.521375
2989.000000	90.509607
2988.000000	90.509877
2987.000000	90.528928
2986.000000	90.566538
2985.000000	90.615002
2984.000000	90.660344
2983.000000	90.688043
2982.000000	90.693469
2981.000000	90.686510
2980.000000	90.681605
2979.000000	90.683061
2978.000000	90.684194
2977.000000	90.679620
2976.000000	90.671697
2975.000000	90.663936
2974.000000	90.656004
2973.000000	90.650021
2972.000000	90.655113
2971.000000	90.677667
2970.000000	90.709650
2969.000000	90.734711
2968.000000	90.746683
2967.000000	90.755664
2966.000000	90.773075
2965.000000	90.795644
2964.000000	90.808627
2963.000000	90.802944
2962.000000	90.784748
2961.000000	90.766925
2960.000000	90.753863
2959.000000	90.737603
2958.000000	90.709449
2957.000000	90.672721
2956.000000	90.640790
2955.000000	90.622616
2954.000000	90.613456
2953.000000	90.601609
2952.000000	90.582033
2951.000000	90.561001
2950.000000	90.548821
2949.000000	90.550456
2948.000000	90.562153
2947.000000	90.574263
2946.000000	90.577832
2945.000000	90.571572
2944.000000	90.563187
2943.000000	90.561190
2942.000000	90.563874
2941.000000	90.558539
2940.000000	90.534170
2939.000000	90.494254
2938.000000	90.454115
2937.000000	90.424703
2936.000000	90.401019
2935.000000	90.368966
2934.000000	90.322886
2933.000000	90.272892
2932.000000	90.233564
2931.000000	90.207851
2930.000000	90.185230
2929.000000	90.154836
2928.000000	90.117076
2927.000000	90.081280
2926.000000	90.054306
2925.000000	90.033672
2924.000000	90.011613
2923.000000	89.984898
2922.000000	89.960512
2921.000000	89.951114
2920.000000	89.963407
2919.000000	89.990376
2918.000000	90.015845
2917.000000	90.027875
2916.000000	90.028390
2915.000000	90.030022
2914.000000	90.043389
2913.000000	90.066346
2912.000000	90.084660
2911.000000	90.084151
2910.000000	90.063151
2909.000000	90.032898
2908.000000	90.005903
2907.000000	89.985876
2906.000000	89.969659
2905.000000	89.954758
2904.000000	89.940557
2903.000000	89.924797
2902.000000	89.904900
2901.000000	89.883363
2900.000000	89.866238
2899.000000	89.854944
2898.000000	89.843436
2897.000000	89.825434
2896.000000	89.802210
2895.000000	89.782260
2894.000000	89.777161
2893.000000	89.797668
2892.000000	89.846941
2891.000000	89.912970
2890.000000	89.971962
2889.000000	90.005305
2888.000000	90.013387
2887.000000	90.011027
2886.000000	90.012803
2885.000000	90.025669
2884.000000	90.050222
2883.000000	90.081356
2882.000000	90.108676
2881.000000	90.124093
2880.000000	90.131943
2879.000000	90.147548
2878.000000	90.182931
2877.000000	90.234979
2876.000000	90.287565
2875.000000	90.323276
2874.000000	90.333929
2873.000000	90.323738
2872.000000	90.304040
2871.000000	90.283226
2870.000000	90.261199
2869.000000	90.234202
2868.000000	90.203529
2867.000000	90.176596
2866.000000	90.159818
2865.000000	90.153254
2864.000000	90.152411
2863.000000	90.152943
2862.000000	90.153725
2861.000000	90.157834
2860.000000	90.170091
2859.000000	90.191098
2858.000000	90.214442
2857.000000	90.232782
2856.000000	90.245413
2855.000000	90.255564
2854.000000	90.261847
2853.000000	90.259411
2852.000000	90.251201
2851.000000	90.251233
2850.000000	90.271731
2849.000000	90.310302
2848.000000	90.353648
2847.000000	90.390882
2846.000000	90.419084
2845.000000	90.439344
2844.000000	90.454539
2843.000000	90.471349
2842.000000	90.498094
2841.000000	90.536717
2840.000000	90.578872
2839.000000	90.612239
2838.000000	90.629784
2837.000000	90.632088
2836.000000	90.623812
2835.000000	90.611906
2834.000000	90.606581
2833.000000	90.618315
2832.000000	90.648877
2831.000000	90.686078
2830.000000	90.711772
2829.000000	90.717019
2828.000000	90.707716
2827.000000	90.695303
2826.000000	90.686408
2825.000000	90.683670
2824.000000	90.690803
2823.000000	90.709303
2822.000000	90.731503
2821.000000	90.744457
2820.000000	90.743049
2819.000000	90.734562
2818.000000	90.728640
2817.000000	90.728003
2816.000000	90.731139
2815.000000	90.738022
2814.000000	90.747816
2813.000000	90.754716
2812.000000	90.752396
2811.000000	90.741710
2810.000000	90.729689
2809.000000	90.721692
2808.000000	90.718370
2807.000000	90.719257
2806.000000	90.724344
2805.000000	90.731566
2804.000000	90.736994
2803.000000	90.739296
2802.000000	90.741550
2801.000000	90.747450
2800.000000	90.757726
2799.000000	90.770836
2798.000000	90.784710
2797.000000	90.796742
2796.000000	90.804488
2795.000000	90.808643
2794.000000	90.814607
2793.000000	90.828981
2792.000000	90.853099
2791.000000	90.879738
2790.000000	90.897455
2789.000000	90.900445
2788.000000	90.894782
2787.000000	90.892733
2786.000000	90.900004
2785.000000	90.911178
2784.000000	90.919138
2783.000000	90.924818
2782.000000	90.933067
2781.000000	90.941518
2780.000000	90.940536
2779.000000	90.925728
2778.000000	90.905655
2777.000000	90.894338
2776.000000	90.898402
2775.000000	90.913089
2774.000000	90.928374
2773.000000	90.937126
2772.000000	90.938810
2771.000000	90.936730
2770.000000	90.931559
2769.000000	90.918960
2768.000000	90.896303
2767.000000	90.870599
2766.000000	90.854721
2765.000000	90.854070
2764.000000	90.861088
2763.000000	90.865622
2762.000000	90.867206
2761.000000	90.873289
2760.000000	90.887754
2759.000000	90.905761
2758.000000	90.919566
2757.000000	90.925741
2756.000000	90.926010
2755.000000	90.923807
2754.000000	90.921887
2753.000000	90.922274
2752.000000	90.926692
2751.000000	90.935789
2750.000000	90.947751
2749.000000	90.958963
2748.000000	90.967224
2747.000000	90.972872
2746.000000	90.974494
2745.000000	90.965692
2744.000000	90.941452
2743.000000	90.908692
2742.000000	90.885004
2741.000000	90.882923
2740.000000	90.898340
2739.000000	90.917380
2738.000000	90.931582
2737.000000	90.941941
2736.000000	90.950473
2735.000000	90.954474
2734.000000	90.950898
2733.000000	90.942781
2732.000000	90.938509
2731.000000	90.945039
2730.000000	90.962114
2729.000000	90.982739
2728.000000	90.999757
2727.000000	91.011855
2726.000000	91.021923
2725.000000	91.030459
2724.000000	91.034757
2723.000000	91.035619
2722.000000	91.039379
2721.000000	91.049376
2720.000000	91.060086
2719.000000	91.065414
2718.000000	91.069193
2717.000000	91.079991
2716.000000	91.096941
2715.000000	91.108827
2714.000000	91.108031
2713.000000	91.098174
2712.000000	91.086185
2711.000000	91.074171
2710.000000	91.062531
2709.000000	91.054052
2708.000000	91.049323
2707.000000	91.043101
2706.000000	91.031571
2705.000000	91.019846
2704.000000	91.015709
2703.000000	91.017629
2702.000000	91.015657
2701.000000	91.004573
2700.000000	90.990394
2699.000000	90.982290
2698.000000	90.982550
2697.000000	90.986924
2696.000000	90.991400
2695.000000	90.995186
2694.000000	90.998194
2693.000000	90.998733
2692.000000	90.995009
2691.000000	90.988489
2690.000000	90.984620
2689.000000	90.988135
2688.000000	90.996249
2687.000000	90.998318
2686.000000	90.986001
2685.000000	90.964733
2684.000000	90.951987
2683.000000	90.961298
2682.000000	90.988729
2681.000000	91.017053
2680.000000	91.032733
2679.000000	91.036585
2678.000000	91.037623
2677.000000	91.040148
2676.000000	91.040449
2675.000000	91.035050
2674.000000	91.027475
2673.000000	91.024046
2672.000000	91.024898
2671.000000	91.023000
2670.000000	91.013036
2669.000000	90.998766
2668.000000	90.989250
2667.000000	90.988462
2666.000000	90.991024
2665.000000	90.989060
2664.000000	90.981353
2663.000000	90.973313
2662.000000	90.968505
2661.000000	90.963863
2660.000000	90.955361
2659.000000	90.945369
2658.000000	90.939908
2657.000000	90.939060
2656.000000	90.935182
2655.000000	90.922776
2654.000000	90.906716
2653.000000	90.897647
2652.000000	90.901336
2651.000000	90.914960
2650.000000	90.931412
2649.000000	90.943857
2648.000000	90.947787
2647.000000	90.943054
2646.000000	90.934803
2645.000000	90.930268
2644.000000	90.934032
2643.000000	90.946433
2642.000000	90.964037
2641.000000	90.979602
2640.000000	90.985012
2639.000000	90.979211
2638.000000	90.972401
2637.000000	90.977766
2636.000000	90.998360
2635.000000	91.024749
2634.000000	91.044533
2633.000000	91.050633
2632.000000	91.041910
2631.000000	91.021937
2630.000000	90.999290
2629.000000	90.984893
2628.000000	90.985633
2627.000000	91.000535
2626.000000	91.022152
2625.000000	91.039848
2624.000000	91.044406
2623.000000	91.034648
2622.000000	91.019607
2621.000000	91.010428
2620.000000	91.010621
2619.000000	91.017796
2618.000000	91.032451
2617.000000	91.057902
2616.000000	91.090959
2615.000000	91.119433
2614.000000	91.131531
2613.000000	91.124356
2612.000000	91.103816
2611.000000	91.081434
2610.000000	91.069984
2609.000000	91.074201
2608.000000	91.084689
2607.000000	91.088760
2606.000000	91.088480
2605.000000	91.098464
2604.000000	91.122550
2603.000000	91.143177
2602.000000	91.140828
2601.000000	91.116111
2600.000000	91.085177
2599.000000	91.060485
2598.000000	91.045167
2597.000000	91.040513
2596.000000	91.047173
2595.000000	91.059469
2594.000000	91.067864
2593.000000	91.069486
2592.000000	91.070960
2591.000000	91.079019
2590.000000	91.091682
2589.000000	91.100084
2588.000000	91.097677
2587.000000	91.087714
2586.000000	91.081908
2585.000000	91.090123
2584.000000	91.111344
2583.000000	91.137015
2582.000000	91.161607
2581.000000	91.184194
2580.000000	91.200311
2579.000000	91.201524
2578.000000	91.187465
2577.000000	91.171114
2576.000000	91.165704
2575.000000	91.170362
2574.000000	91.173557
2573.000000	91.167187
2572.000000	91.153365
2571.000000	91.141499
2570.000000	91.142821
2569.000000	91.163984
2568.000000	91.201986
2567.000000	91.247762
2566.000000	91.295350
2565.000000	91.341862
2564.000000	91.378232
2563.000000	91.390416
2562.000000	91.375211
2561.000000	91.346702
2560.000000	91.321071
2559.000000	91.302471
2558.000000	91.288397
2557.000000	91.277768
2556.000000	91.265172
2555.000000	91.238653
2554.000000	91.196866
2553.000000	91.160668
2552.000000	91.152137
2551.000000	91.165754
2550.000000	91.175393
2549.000000	91.169115
2548.000000	91.162765
2547.000000	91.176819
2546.000000	91.211555
2545.000000	91.248655
2544.000000	91.268720
2543.000000	91.264451
2542.000000	91.243942
2541.000000	91.223993
2540.000000	91.215634
2539.000000	91.216335
2538.000000	91.220517
2537.000000	91.232114
2536.000000	91.255320
2535.000000	91.274780
2534.000000	91.260538
2533.000000	91.200569
2532.000000	91.120692
2531.000000	91.065431
2530.000000	91.062492
2529.000000	91.106503
2528.000000	91.168354
2527.000000	91.214276
2526.000000	91.221941
2525.000000	91.189167
2524.000000	91.132936
2523.000000	91.079773
2522.000000	91.053308
2521.000000	91.063722
2520.000000	91.102315
2519.000000	91.146083
2518.000000	91.171554
2517.000000	91.166494
2516.000000	91.130886
2515.000000	91.073196
2514.000000	91.009993
2513.000000	90.963281
2512.000000	90.948389
2511.000000	90.962542
2510.000000	90.988763
2509.000000	91.010967
2508.000000	91.024077
2507.000000	91.033460
2506.000000	91.048622
2505.000000	91.074196
2504.000000	91.102493
2503.000000	91.117971
2502.000000	91.113396
2501.000000	91.098003
2500.000000	91.086116
2499.000000	91.084139
2498.000000	91.094597
2497.000000	91.123814
2496.000000	91.172592
2495.000000	91.223084
2494.000000	91.248989
2493.000000	91.241348
2492.000000	91.215664
2491.000000	91.193245
2490.000000	91.184697
2489.000000	91.191103
2488.000000	91.208631
2487.000000	91.226850
2486.000000	91.231648
2485.000000	91.217617
2484.000000	91.195342
2483.000000	91.183490
2482.000000	91.194723
2481.000000	91.226704
2480.000000	91.261103
2479.000000	91.273539
2478.000000	91.253112
2477.000000	91.214362
2476.000000	91.185152
2475.000000	91.182644
2474.000000	91.205170
2473.000000	91.242481
2472.000000	91.282891
2471.000000	91.311469
2470.000000	91.314761
2469.000000	91.293182
2468.000000	91.260781
2467.000000	91.228749
2466.000000	91.197431
2465.000000	91.168540
2464.000000	91.154781
2463.000000	91.168133
2462.000000	91.203908
2461.000000	91.244743
2460.000000	91.277781
2459.000000	91.301128
2458.000000	91.316010
2457.000000	91.321675
2456.000000	91.320368
2455.000000	91.320967
2454.000000	91.331979
2453.000000	91.350899
2452.000000	91.363349
2451.000000	91.354757
2450.000000	91.323382
2449.000000	91.282098
2448.000000	91.249508
2447.000000	91.241314
2446.000000	91.266626
2445.000000	91.322916
2444.000000	91.389543
2443.000000	91.433888
2442.000000	91.434667
2441.000000	91.401237
2440.000000	91.365525
2439.000000	91.354434
2438.000000	91.372317
2437.000000	91.406380
2436.000000	91.441747
2435.000000	91.470490
2434.000000	91.491452
2433.000000	91.504446
2432.000000	91.504944
2431.000000	91.486489
2430.000000	91.449432
2429.000000	91.403456
2428.000000	91.359130
2427.000000	91.322431
2426.000000	91.301021
2425.000000	91.307133
2424.000000	91.343927
2423.000000	91.392842
2422.000000	91.425814
2421.000000	91.431355
2420.000000	91.422336
2419.000000	91.418979
2418.000000	91.431311
2417.000000	91.456503
2416.000000	91.484009
2415.000000	91.501916
2414.000000	91.505824
2413.000000	91.503886
2412.000000	91.508243
2411.000000	91.521156
2410.000000	91.534665
2409.000000	91.542841
2408.000000	91.547065
2407.000000	91.548744
2406.000000	91.544479
2405.000000	91.531226
2404.000000	91.511606
2403.000000	91.492715
2402.000000	91.483332
2401.000000	91.491185
2400.000000	91.517018
2399.000000	91.550824
2398.000000	91.578470
2397.000000	91.591875
2396.000000	91.589285
2395.000000	91.569575
2394.000000	91.534590
2393.000000	91.496438
2392.000000	91.473709
2391.000000	91.477170
2390.000000	91.502393
2389.000000	91.535215
2388.000000	91.560024
2387.000000	91.566113
2386.000000	91.554255
2385.000000	91.536728
2384.000000	91.523691
2383.000000	91.510494
2382.000000	91.487106
2381.000000	91.459501
2380.000000	91.448846
2379.000000	91.463687
2378.000000	91.484889
2377.000000	91.488491
2376.000000	91.476592
2375.000000	91.474198
2374.000000	91.498151
2373.000000	91.540394
2372.000000	91.572763
2371.000000	91.561603
2370.000000	91.488163
2369.000000	91.372480
2368.000000	91.272427
2367.000000	91.244366
2366.000000	91.297978
2365.000000	91.391548
2364.000000	91.465584
2363.000000	91.481682
2362.000000	91.431975
2361.000000	91.343077
2360.000000	91.276915
2359.000000	91.277245
2358.000000	91.332389
2357.000000	91.391530
2356.000000	91.405906
2355.000000	91.385011
2354.000000	91.366907
2353.000000	91.377664
2352.000000	91.405010
2351.000000	91.426900
2350.000000	91.446528
2349.000000	91.450687
2348.000000	91.416178
2347.000000	91.331597
2346.000000	91.221366
2345.000000	91.155527
2344.000000	91.167277
2343.000000	91.231261
2342.000000	91.269074
2341.000000	91.258506
2340.000000	91.246304
2339.000000	91.262959
2338.000000	91.295707
2337.000000	91.305036
2336.000000	91.295350
2335.000000	91.299799
2334.000000	91.359299
2333.000000	91.466297
2332.000000	91.583354
2331.000000	91.630786
2330.000000	91.562107
2329.000000	91.359306
2328.000000	91.094108
2327.000000	90.856861
2326.000000	90.719468
2325.000000	90.697760
2324.000000	90.750094
2323.000000	90.832920
2322.000000	90.918460
2321.000000	91.007778
2320.000000	91.100072
2319.000000	91.169586
2318.000000	91.198957
2317.000000	91.180776
2316.000000	91.145735
2315.000000	91.113995
2314.000000	91.109384
2313.000000	91.121846
2312.000000	91.139301
2311.000000	91.135449
2310.000000	91.116171
2309.000000	91.097131
2308.000000	91.098058
2307.000000	91.107564
2306.000000	91.114815
2305.000000	91.119968
2304.000000	91.136651
2303.000000	91.153603
2302.000000	91.148593
2301.000000	91.109167
2300.000000	91.056525
2299.000000	91.008136
2298.000000	90.970092
2297.000000	90.941857
2296.000000	90.939701
2295.000000	90.971330
2294.000000	91.020582
2293.000000	91.056791
2292.000000	91.068836
2291.000000	91.070143
2290.000000	91.075919
2289.000000	91.088451
2288.000000	91.102750
2287.000000	91.119441
2286.000000	91.141727
2285.000000	91.169252
2284.000000	91.194257
2283.000000	91.210989
2282.000000	91.225838
2281.000000	91.257221
2280.000000	91.313123
2279.000000	91.373669
2278.000000	91.411350
2277.000000	91.432717
2276.000000	91.478848
2275.000000	91.566412
2274.000000	91.648332
2273.000000	91.656246
2272.000000	91.582012
2271.000000	91.491080
2270.000000	91.454227
2269.000000	91.484947
2268.000000	91.547628
2267.000000	91.605954
2266.000000	91.649646
2265.000000	91.684444
2264.000000	91.714777
2263.000000	91.737597
2262.000000	91.745763
2261.000000	91.736452
2260.000000	91.718488
2259.000000	91.712566
2258.000000	91.735417
2257.000000	91.781957
2256.000000	91.824983
2255.000000	91.838710
2254.000000	91.822929
2253.000000	91.798749
2252.000000	91.783435
2251.000000	91.774063
2250.000000	91.758794
2249.000000	91.731962
2248.000000	91.693550
2247.000000	91.641790
2246.000000	91.576738
2245.000000	91.506189
2244.000000	91.441016
2243.000000	91.391625
2242.000000	91.375957
2241.000000	91.415848
2240.000000	91.505545
2239.000000	91.593720
2238.000000	91.623811
2237.000000	91.598158
2236.000000	91.582422
2235.000000	91.636298
2234.000000	91.751380
2233.000000	91.861122
2232.000000	91.899490
2231.000000	91.846546
2230.000000	91.732105
2229.000000	91.610892
2228.000000	91.532128
2227.000000	91.522646
2226.000000	91.587093
2225.000000	91.705539
2224.000000	91.827343
2223.000000	91.895069
2222.000000	91.899726
2221.000000	91.897406
2220.000000	91.941825
2219.000000	92.010260
2218.000000	92.031393
2217.000000	91.982523
2216.000000	91.916487
2215.000000	91.881942
2214.000000	91.861476
2213.000000	91.809799
2212.000000	91.719322
2211.000000	91.622169
2210.000000	91.552753
2209.000000	91.533591
2208.000000	91.574254
2207.000000	91.656253
2206.000000	91.734300
2205.000000	91.778545
2204.000000	91.805335
2203.000000	91.841654
2202.000000	91.871247
2201.000000	91.846638
2200.000000	91.752683
2199.000000	91.628004
2198.000000	91.516996
2197.000000	91.427116
2196.000000	91.348202
2195.000000	91.296557
2194.000000	91.311007
2193.000000	91.396495
2192.000000	91.492666
2191.000000	91.527995
2190.000000	91.503107
2189.000000	91.489489
2188.000000	91.535073
2187.000000	91.604267
2186.000000	91.636940
2185.000000	91.635451
2184.000000	91.650482
2183.000000	91.698866
2182.000000	91.749005
2181.000000	91.783830
2180.000000	91.824877
2179.000000	91.885869
2178.000000	91.949373
2177.000000	92.000704
2176.000000	92.041290
2175.000000	92.053183
2174.000000	91.999622
2173.000000	91.891533
2172.000000	91.811960
2171.000000	91.833413
2170.000000	91.930970
2169.000000	92.005880
2168.000000	91.987682
2167.000000	91.889858
2166.000000	91.770896
2165.000000	91.670560
2164.000000	91.589340
2163.000000	91.521246
2162.000000	91.503334
2161.000000	91.612329
2160.000000	91.876176
2159.000000	92.202605
2158.000000	92.453725
2157.000000	92.587104
2156.000000	92.672564
2155.000000	92.774622
2154.000000	92.865866
2153.000000	92.866306
2152.000000	92.741760
2151.000000	92.547577
2150.000000	92.389536
2149.000000	92.348559
2148.000000	92.420356
2147.000000	92.519272
2146.000000	92.553465
2145.000000	92.501614
2144.000000	92.415581
2143.000000	92.360819
2142.000000	92.368334
2141.000000	92.424883
2140.000000	92.482800
2139.000000	92.493130
2138.000000	92.456448
2137.000000	92.430231
2136.000000	92.457201
2135.000000	92.503174
2134.000000	92.506378
2133.000000	92.470762
2132.000000	92.456198
2131.000000	92.479353
2130.000000	92.481203
2129.000000	92.409836
2128.000000	92.292657
2127.000000	92.197246
2126.000000	92.151476
2125.000000	92.134362
2124.000000	92.126171
2123.000000	92.134226
2122.000000	92.170892
2121.000000	92.228077
2120.000000	92.277694
2119.000000	92.288906
2118.000000	92.247739
2117.000000	92.168669
2116.000000	92.084723
2115.000000	92.021179
2114.000000	91.982699
2113.000000	91.965070
2112.000000	91.967012
2111.000000	91.985832
2110.000000	92.012467
2109.000000	92.036677
2108.000000	92.050257
2107.000000	92.045997
2106.000000	92.026439
2105.000000	92.013342
2104.000000	92.030370
2103.000000	92.072041
2102.000000	92.105423
2101.000000	92.106152
2100.000000	92.078353
2099.000000	92.038519
2098.000000	92.002104
2097.000000	91.990492
2096.000000	92.022751
2095.000000	92.086749
2094.000000	92.139538
2093.000000	92.150322
2092.000000	92.127638
2091.000000	92.094561
2090.000000	92.056780
2089.000000	92.010384
2088.000000	91.965302
2087.000000	91.941730
2086.000000	91.949545
2085.000000	91.981709
2084.000000	92.020680
2083.000000	92.044278
2082.000000	92.034493
2081.000000	91.990221
2080.000000	91.927015
2079.000000	91.861586
2078.000000	91.804518
2077.000000	91.765994
2076.000000	91.751922
2075.000000	91.752892
2074.000000	91.752781
2073.000000	91.752166
2072.000000	91.770253
2071.000000	91.819536
2070.000000	91.891048
2069.000000	91.963636
2068.000000	92.015233
2067.000000	92.030130
2066.000000	92.012577
2065.000000	91.989479
2064.000000	91.980021
2063.000000	91.971915
2062.000000	91.950357
2061.000000	91.928988
2060.000000	91.917471
2059.000000	91.881925
2058.000000	91.793850
2057.000000	91.709034
2056.000000	91.726709
2055.000000	91.852954
2054.000000	91.966625
2053.000000	91.952127
2052.000000	91.822058
2051.000000	91.681041
2050.000000	91.613941
2049.000000	91.638297
2048.000000	91.719393
2047.000000	91.792736
2046.000000	91.804309
2045.000000	91.768565
2044.000000	91.760082
2043.000000	91.816363
2042.000000	91.883299
2041.000000	91.890670
2040.000000	91.849329
2039.000000	91.831535
2038.000000	91.885225
2037.000000	91.999323
2036.000000	92.116028
2035.000000	92.158293
2034.000000	92.094293
2033.000000	92.002045
2032.000000	92.011990
2031.000000	92.150608
2030.000000	92.301417
2029.000000	92.353478
2028.000000	92.330504
2027.000000	92.322714
2026.000000	92.356135
2025.000000	92.392010
2024.000000	92.401727
2023.000000	92.374175
2022.000000	92.292958
2021.000000	92.175211
2020.000000	92.096170
2019.000000	92.109791
2018.000000	92.167805
2017.000000	92.169447
2016.000000	92.081774
2015.000000	91.955887
2014.000000	91.845876
2013.000000	91.777922
2012.000000	91.771849
2011.000000	91.837919
2010.000000	91.960266
2009.000000	92.110752
2008.000000	92.270324
2007.000000	92.419873
2006.000000	92.530413
2005.000000	92.582052
2004.000000	92.573590
2003.000000	92.500635
2002.000000	92.359493
2001.000000	92.187863
2000.000000	92.058934
1999.000000	92.015038
1998.000000	92.039345
1997.000000	92.101450
1996.000000	92.180596
1995.000000	92.231729
1994.000000	92.192814
1993.000000	92.072814
1992.000000	91.982497
1991.000000	92.003772
1990.000000	92.078948
1989.000000	92.100290
1988.000000	92.042676
1987.000000	91.944392
1986.000000	91.813181
1985.000000	91.628627
1984.000000	91.412831
1983.000000	91.231598
1982.000000	91.138917
1981.000000	91.167296
1980.000000	91.343556
1979.000000	91.651851
1978.000000	91.994615
1977.000000	92.264172
1976.000000	92.440140
1975.000000	92.552226
1974.000000	92.586757
1973.000000	92.512296
1972.000000	92.366874
1971.000000	92.236909
1970.000000	92.164945
1969.000000	92.139134
1968.000000	92.151145
1967.000000	92.202519
1966.000000	92.265352
1965.000000	92.300857
1964.000000	92.309750
1963.000000	92.317403
1962.000000	92.327602
1961.000000	92.328609
1960.000000	92.328373
1959.000000	92.340487
1958.000000	92.349242
1957.000000	92.331566
1956.000000	92.301422
1955.000000	92.296344
1954.000000	92.330505
1953.000000	92.391658
1952.000000	92.468636
1951.000000	92.543954
1950.000000	92.577725
1949.000000	92.539590
1948.000000	92.454233
1947.000000	92.379489
1946.000000	92.337819
1945.000000	92.299155
1944.000000	92.232363
1943.000000	92.148692
1942.000000	92.087615
1941.000000	92.072242
1940.000000	92.090806
1939.000000	92.114761
1938.000000	92.125864
1937.000000	92.130389
1936.000000	92.149882
1935.000000	92.194400
1934.000000	92.252883
1933.000000	92.312844
1932.000000	92.369444
1931.000000	92.404378
1930.000000	92.387093
1929.000000	92.316136
1928.000000	92.242755
1927.000000	92.226375
1926.000000	92.272996
1925.000000	92.340638
1924.000000	92.381826
1923.000000	92.374068
1922.000000	92.324288
1921.000000	92.262318
1920.000000	92.224250
1919.000000	92.235368
1918.000000	92.291383
1917.000000	92.352521
1916.000000	92.376784
1915.000000	92.349835
1914.000000	92.284803
1913.000000	92.216557
1912.000000	92.178706
1911.000000	92.173516
1910.000000	92.177659
1909.000000	92.178734
1908.000000	92.186793
1907.000000	92.199432
1906.000000	92.187892
1905.000000	92.143840
1904.000000	92.099229
1903.000000	92.081977
1902.000000	92.074464
1901.000000	92.046019
1900.000000	92.010813
1899.000000	92.011490
1898.000000	92.052100
1897.000000	92.088998
1896.000000	92.084284
1895.000000	92.045669
1894.000000	92.003555
1893.000000	91.973311
1892.000000	91.957442
1891.000000	91.964304
1890.000000	92.001794
1889.000000	92.055648
1888.000000	92.095201
1887.000000	92.096706
1886.000000	92.054339
1885.000000	91.990076
1884.000000	91.947484
1883.000000	91.957516
1882.000000	92.012303
1881.000000	92.076163
1880.000000	92.117858
1879.000000	92.124582
1878.000000	92.096868
1877.000000	92.054982
1876.000000	92.037804
1875.000000	92.068547
1874.000000	92.125584
1873.000000	92.164039
1872.000000	92.167885
1871.000000	92.167128
1870.000000	92.203133
1869.000000	92.279219
1868.000000	92.350822
1867.000000	92.381682
1866.000000	92.370249
1865.000000	92.328409
1864.000000	92.275272
1863.000000	92.228714
1862.000000	92.192439
1861.000000	92.159219
1860.000000	92.127436
1859.000000	92.108405
1858.000000	92.115205
1857.000000	92.148808
1856.000000	92.194921
1855.000000	92.231766
1854.000000	92.243860
1853.000000	92.236124
1852.000000	92.232081
1851.000000	92.252408
1850.000000	92.289247
1849.000000	92.322620
1848.000000	92.349221
1847.000000	92.382714
1846.000000	92.423658
1845.000000	92.445913
1844.000000	92.426980
1843.000000	92.384188
1842.000000	92.349252
1841.000000	92.327026
1840.000000	92.314089
1839.000000	92.313938
1838.000000	92.325337
1837.000000	92.339874
1836.000000	92.348451
1835.000000	92.352564
1834.000000	92.363929
1833.000000	92.393540
1832.000000	92.437685
1831.000000	92.467940
1830.000000	92.446991
1829.000000	92.391041
1828.000000	92.361830
1827.000000	92.372511
1826.000000	92.386678
1825.000000	92.379883
1824.000000	92.363104
1823.000000	92.357417
1822.000000	92.363552
1821.000000	92.376384
1820.000000	92.399765
1819.000000	92.427297
1818.000000	92.435175
1817.000000	92.410339
1816.000000	92.366844
1815.000000	92.324554
1814.000000	92.280205
1813.000000	92.216093
1812.000000	92.130587
1811.000000	92.040452
1810.000000	91.966972
1809.000000	91.923161
1808.000000	91.910925
1807.000000	91.924637
1806.000000	91.950331
1805.000000	91.971256
1804.000000	91.981254
1803.000000	91.988720
1802.000000	92.005220
1801.000000	92.033242
1800.000000	92.071403
1799.000000	92.112109
1798.000000	92.144830
1797.000000	92.162627
1796.000000	92.169457
1795.000000	92.172208
1794.000000	92.167341
1793.000000	92.150662
1792.000000	92.145064
1791.000000	92.180573
1790.000000	92.247647
1789.000000	92.303136
1788.000000	92.322256
1787.000000	92.311361
1786.000000	92.284825
1785.000000	92.253803
1784.000000	92.227640
1783.000000	92.207335
1782.000000	92.177712
1781.000000	92.122971
1780.000000	92.063044
1779.000000	92.031676
1778.000000	92.034917
1777.000000	92.048336
1776.000000	92.053850
1775.000000	92.052169
1774.000000	92.043528
1773.000000	92.023186
1772.000000	91.995227
1771.000000	91.982323
1770.000000	91.999624
1769.000000	92.036437
1768.000000	92.087410
1767.000000	92.148571
1766.000000	92.203315
1765.000000	92.241111
1764.000000	92.268587
1763.000000	92.290637
1762.000000	92.293949
1761.000000	92.269634
1760.000000	92.241921
1759.000000	92.229785
1758.000000	92.235451
1757.000000	92.249283
1756.000000	92.263882
1755.000000	92.278814
1754.000000	92.287154
1753.000000	92.285165
1752.000000	92.284795
1751.000000	92.297296
1750.000000	92.313280
1749.000000	92.319637
1748.000000	92.310511
1747.000000	92.289197
1746.000000	92.256403
1745.000000	92.212914
1744.000000	92.170638
1743.000000	92.138529
1742.000000	92.115754
1741.000000	92.095842
1740.000000	92.074406
1739.000000	92.049423
1738.000000	92.023856
1737.000000	92.000519
1736.000000	91.981370
1735.000000	91.975325
1734.000000	91.977243
1733.000000	91.970341
1732.000000	91.978117
1731.000000	92.001233
1730.000000	92.021885
1729.000000	92.029273
1728.000000	92.027599
1727.000000	92.026812
1726.000000	92.024024
1725.000000	92.014273
1724.000000	91.997342
1723.000000	91.969205
1722.000000	91.935039
1721.000000	91.910224
1720.000000	91.908324
1719.000000	91.926779
1718.000000	91.936271
1717.000000	91.912478
1716.000000	91.897104
1715.000000	91.924895
1714.000000	91.962402
1713.000000	91.975532
1712.000000	91.964256
1711.000000	91.949143
1710.000000	91.942565
1709.000000	91.940945
1708.000000	91.943813
1707.000000	91.952775
1706.000000	91.948862
1705.000000	91.911957
1704.000000	91.862095
1703.000000	91.829927
1702.000000	91.815084
1701.000000	91.826940
1700.000000	91.877699
1699.000000	91.925130
1698.000000	91.931706
1697.000000	91.901487
1696.000000	91.874064
1695.000000	91.883786
1694.000000	91.918516
1693.000000	91.924464
1692.000000	91.888521
1691.000000	91.838160
1690.000000	91.795315
1689.000000	91.760635
1688.000000	91.733058
1687.000000	91.707607
1686.000000	91.651148
1685.000000	91.512450
1684.000000	91.294609
1683.000000	91.151019
1682.000000	91.119783
1681.000000	91.041403
1680.000000	90.883264
1679.000000	90.723006
1678.000000	90.608848
1677.000000	90.516970
1676.000000	90.398297
1675.000000	90.240949
1674.000000	90.079329
1673.000000	89.938514
1672.000000	89.818628
1671.000000	89.709036
1670.000000	89.588108
1669.000000	89.453643
1668.000000	89.355241
1667.000000	89.307078
1666.000000	89.271375
1665.000000	89.226420
1664.000000	89.172885
1663.000000	89.116768
1662.000000	89.065066
1661.000000	89.026424
1660.000000	89.009255
1659.000000	89.009304
1658.000000	89.011856
1657.000000	89.007735
1656.000000	89.007548
1655.000000	89.027112
1654.000000	89.063562
1653.000000	89.063954
1652.000000	89.052324
1651.000000	89.090757
1650.000000	89.101971
1649.000000	89.093454
1648.000000	89.073503
1647.000000	89.041252
1646.000000	89.000784
1645.000000	88.967075
1644.000000	88.916117
1643.000000	88.831790
1642.000000	88.723715
1641.000000	88.591487
1640.000000	88.454535
1639.000000	88.342664
1638.000000	88.250217
1637.000000	88.121081
1636.000000	87.902041
1635.000000	87.667622
1634.000000	87.527764
1633.000000	87.449331
1632.000000	87.389454
1631.000000	87.368798
1630.000000	87.391717
1629.000000	87.431612
1628.000000	87.470770
1627.000000	87.522908
1626.000000	87.595434
1625.000000	87.666793
1624.000000	87.711890
1623.000000	87.708810
1622.000000	87.651989
1621.000000	87.561351
1620.000000	87.454959
1619.000000	87.322100
1618.000000	87.106165
1617.000000	86.752267
1616.000000	86.355146
1615.000000	86.094560
1614.000000	85.982626
1613.000000	85.927095
1612.000000	85.874737
1611.000000	85.817397
1610.000000	85.771354
1609.000000	85.780989
1608.000000	85.917671
1607.000000	86.223698
1606.000000	86.668605
1605.000000	87.192147
1604.000000	87.767299
1603.000000	88.372825
1602.000000	88.952163
1601.000000	89.447302
1600.000000	89.836360
1599.000000	90.100645
1598.000000	90.186120
1597.000000	90.013172
1596.000000	89.492547
1595.000000	88.554648
1594.000000	87.229462
1593.000000	85.673292
1592.000000	84.078433
1591.000000	82.617632
1590.000000	81.481962
1589.000000	80.868841
1588.000000	80.881695
1587.000000	81.448691
1586.000000	82.329719
1585.000000	83.231281
1584.000000	83.965952
1583.000000	84.485110
1582.000000	84.790103
1581.000000	84.909719
1580.000000	84.921435
1579.000000	84.913430
1578.000000	84.930168
1577.000000	84.981090
1576.000000	85.032251
1575.000000	84.994685
1574.000000	84.794536
1573.000000	84.406578
1572.000000	83.856316
1571.000000	83.215984
1570.000000	82.659754
1569.000000	82.437191
1568.000000	82.650962
1567.000000	83.218138
1566.000000	84.032251
1565.000000	84.956202
1564.000000	85.794139
1563.000000	86.419904
1562.000000	86.858199
1561.000000	87.195617
1560.000000	87.586393
1559.000000	88.141170
1558.000000	88.621571
1557.000000	88.929964
1556.000000	89.103332
1555.000000	89.213697
1554.000000	89.301689
1553.000000	89.352035
1552.000000	89.373487
1551.000000	89.389172
1550.000000	89.393413
1549.000000	89.373092
1548.000000	89.342523
1547.000000	89.317046
1546.000000	89.273861
1545.000000	89.172340
1544.000000	89.013314
1543.000000	88.847584
1542.000000	88.673019
1541.000000	88.389162
1540.000000	87.941081
1539.000000	87.490252
1538.000000	87.148403
1537.000000	86.810877
1536.000000	86.355382
1535.000000	85.556582
1534.000000	84.058906
1533.000000	81.963779
1532.000000	80.005829
1531.000000	78.506864
1530.000000	77.244202
1529.000000	76.038743
1528.000000	74.869829
1527.000000	73.822207
1526.000000	73.052981
1525.000000	72.692754
1524.000000	72.727453
1523.000000	73.077651
1522.000000	73.721765
1521.000000	74.525459
1520.000000	75.215198
1519.000000	75.729150
1518.000000	76.206222
1517.000000	76.752045
1516.000000	77.307568
1515.000000	77.783034
1514.000000	78.205819
1513.000000	78.625596
1512.000000	79.022466
1511.000000	79.332013
1510.000000	79.538983
1509.000000	79.678689
1508.000000	79.764097
1507.000000	79.774239
1506.000000	79.814351
1505.000000	79.977861
1504.000000	80.130030
1503.000000	80.238743
1502.000000	80.377357
1501.000000	80.584022
1500.000000	80.859844
1499.000000	81.183338
1498.000000	81.532325
1497.000000	81.879130
1496.000000	82.182887
1495.000000	82.433391
1494.000000	82.655738
1493.000000	82.866984
1492.000000	83.073885
1491.000000	83.281012
1490.000000	83.475802
1489.000000	83.625418
1488.000000	83.731429
1487.000000	83.836511
1486.000000	83.971536
1485.000000	84.122711
1484.000000	84.263940
1483.000000	84.388813
1482.000000	84.492340
1481.000000	84.566428
1480.000000	84.619565
1479.000000	84.674666
1478.000000	84.720672
1477.000000	84.702092
1476.000000	84.573171
1475.000000	84.309762
1474.000000	83.771693
1473.000000	82.667379
1472.000000	81.079748
1471.000000	79.599414
1470.000000	78.544096
1469.000000	77.877107
1468.000000	77.591732
1467.000000	77.740561
1466.000000	78.333097
1465.000000	79.200938
1464.000000	80.023597
1463.000000	80.615686
1462.000000	81.024878
1461.000000	81.348624
1460.000000	81.624325
1459.000000	81.830915
1458.000000	81.877492
1457.000000	81.675662
1456.000000	81.362781
1455.000000	81.105987
1454.000000	80.848130
1453.000000	80.501235
1452.000000	80.037093
1451.000000	79.498390
1450.000000	78.956539
1449.000000	78.465771
1448.000000	78.099870
1447.000000	77.938818
1446.000000	77.976660
1445.000000	78.136070
1444.000000	78.363478
1443.000000	78.629851
1442.000000	78.896008
1441.000000	79.118070
1440.000000	79.241913
1439.000000	79.074355
1438.000000	78.117642
1437.000000	75.811852
1436.000000	72.701326
1435.000000	70.287471
1434.000000	69.137379
1433.000000	68.945830
1432.000000	69.471916
1431.000000	70.579135
1430.000000	72.047932
1429.000000	73.579832
1428.000000	74.959754
1427.000000	76.129097
1426.000000	77.147778
1425.000000	78.084312
1424.000000	78.891749
1423.000000	79.440183
1422.000000	79.677255
1421.000000	79.605534
1420.000000	79.174406
1419.000000	78.465619
1418.000000	77.900310
1417.000000	77.798834
1416.000000	78.073202
1415.000000	78.532313
1414.000000	79.051276
1413.000000	79.555816
1412.000000	79.996181
1411.000000	80.334394
1410.000000	80.561568
1409.000000	80.699282
1408.000000	80.772122
1407.000000	80.796292
1406.000000	80.786854
1405.000000	80.750250
1404.000000	80.683379
1403.000000	80.590221
1402.000000	80.490302
1401.000000	80.399759
1400.000000	80.313806
1399.000000	80.222334
1398.000000	80.145593
1397.000000	80.120981
1396.000000	80.155438
1395.000000	80.214420
1394.000000	80.251675
1393.000000	80.255165
1392.000000	80.244173
1391.000000	80.240846
1390.000000	80.261090
1389.000000	80.308446
1388.000000	80.370752
1387.000000	80.423516
1386.000000	80.448980
1385.000000	80.442361
1384.000000	80.397305
1383.000000	80.304582
1382.000000	80.166605
1381.000000	80.002218
1380.000000	79.830863
1379.000000	79.657390
1378.000000	79.461509
1377.000000	79.167409
1376.000000	78.612250
1375.000000	77.608661
1374.000000	76.212295
1373.000000	74.874638
1372.000000	74.069878
1371.000000	73.967085
1370.000000	74.529380
1369.000000	75.604382
1368.000000	76.921208
1367.000000	78.196648
1366.000000	79.292557
1365.000000	80.224218
1364.000000	81.056465
1363.000000	81.811042
1362.000000	82.438778
1361.000000	82.883993
1360.000000	83.137699
1359.000000	83.207796
1358.000000	83.084623
1357.000000	82.745654
1356.000000	82.181134
1355.000000	81.415306
1354.000000	80.508154
1353.000000	79.535597
1352.000000	78.564715
1351.000000	77.650452
1350.000000	76.833806
1349.000000	76.117379
1348.000000	75.455685
1347.000000	74.794067
1346.000000	74.134866
1345.000000	73.566791
1344.000000	73.225509
1343.000000	73.217021
1342.000000	73.576226
1341.000000	74.268991
1340.000000	75.185671
1339.000000	76.150739
1338.000000	77.021501
1337.000000	77.769792
1336.000000	78.431734
1335.000000	79.031343
1334.000000	79.566050
1333.000000	80.025694
1332.000000	80.406952
1331.000000	80.713769
1330.000000	80.950788
1329.000000	81.114551
1328.000000	81.191080
1327.000000	81.168434
1326.000000	81.056427
1325.000000	80.897099
1324.000000	80.759803
1323.000000	80.719340
1322.000000	80.824908
1321.000000	81.078098
1320.000000	81.436208
1319.000000	81.833889
1318.000000	82.210721
1317.000000	82.532551
1316.000000	82.794623
1315.000000	83.011777
1314.000000	83.205664
1313.000000	83.389905
1312.000000	83.561338
1311.000000	83.709077
1310.000000	83.828358
1309.000000	83.919354
1308.000000	83.978323
1307.000000	84.002352
1306.000000	84.001761
1305.000000	83.996099
1304.000000	83.995756
1303.000000	83.993038
1302.000000	83.973734
1301.000000	83.931474
1300.000000	83.870099
1299.000000	83.798286
1298.000000	83.726761
1297.000000	83.668519
1296.000000	83.638461
1295.000000	83.648622
1294.000000	83.698141
1293.000000	83.767566
1292.000000	83.828632
1291.000000	83.864943
1290.000000	83.880975
1289.000000	83.887423
1288.000000	83.884352
1287.000000	83.867907
1286.000000	83.847909
1285.000000	83.843775
1284.000000	83.860555
1283.000000	83.877292
1282.000000	83.857505
1281.000000	83.753742
1280.000000	83.488339
1279.000000	82.946540
1278.000000	82.036237
1277.000000	80.800443
1276.000000	79.483696
1275.000000	78.457051
1274.000000	78.020915
1273.000000	78.242641
1272.000000	78.958429
1271.000000	79.902283
1270.000000	80.845739
1269.000000	81.666324
1268.000000	82.332160
1267.000000	82.854778
1266.000000	83.259001
1265.000000	83.571472
1264.000000	83.814125
1263.000000	84.001200
1262.000000	84.139124
1261.000000	84.225519
1260.000000	84.250532
1259.000000	84.199036
1258.000000	84.040224
1257.000000	83.711038
1256.000000	83.133751
1255.000000	82.288739
1254.000000	81.286478
1253.000000	80.354625
1252.000000	79.738826
1251.000000	79.592126
1250.000000	79.917357
1249.000000	80.589133
1248.000000	81.426373
1247.000000	82.254823
1246.000000	82.937926
1245.000000	83.386217
1244.000000	83.547310
1243.000000	83.382643
1242.000000	82.851644
1241.000000	81.926452
1240.000000	80.643913
1239.000000	79.155632
1238.000000	77.701526
1237.000000	76.500418
1236.000000	75.659629
1235.000000	75.177271
1234.000000	75.002112
1233.000000	75.086168
1232.000000	75.395143
1231.000000	75.879806
1230.000000	76.451765
1229.000000	77.005737
1228.000000	77.469728
1227.000000	77.828341
1226.000000	78.103929
1225.000000	78.327427
1224.000000	78.525807
1223.000000	78.720386
1222.000000	78.922922
1221.000000	79.134072
1220.000000	79.348879
1219.000000	79.558172
1218.000000	79.741574
1217.000000	79.869997
1216.000000	79.928600
1215.000000	79.938609
1214.000000	79.949835
1213.000000	80.011246
1212.000000	80.152882
1211.000000	80.389437
1210.000000	80.724634
1209.000000	81.143985
1208.000000	81.609477
1207.000000	82.071909
1206.000000	82.495902
1205.000000	82.873638
1204.000000	83.213460
1203.000000	83.519943
1202.000000	83.788855
1201.000000	84.017311
1200.000000	84.211920
1199.000000	84.384786
1198.000000	84.542353
1197.000000	84.678542
1196.000000	84.778928
1195.000000	84.829755
1194.000000	84.816422
1193.000000	84.706427
1192.000000	84.433494
1191.000000	83.904842
1190.000000	83.038097
1189.000000	81.819043
1188.000000	80.361811
1187.000000	78.926137
1186.000000	77.833631
1185.000000	77.311771
1184.000000	77.391631
1183.000000	77.928125
1182.000000	78.699511
1181.000000	79.513581
1180.000000	80.263794
1179.000000	80.918779
1178.000000	81.478859
1177.000000	81.945944
1176.000000	82.324378
1175.000000	82.634528
1174.000000	82.910172
1173.000000	83.175249
1172.000000	83.426782
1171.000000	83.644227
1170.000000	83.811086
1169.000000	83.924040
1168.000000	83.987998
1167.000000	84.011809
1166.000000	84.007337
1165.000000	83.985046
1164.000000	83.950278
1163.000000	83.906995
1162.000000	83.862136
1161.000000	83.823468
1160.000000	83.798180
1159.000000	83.795416
1158.000000	83.820168
1157.000000	83.858911
1156.000000	83.883523
1155.000000	83.883666
1154.000000	83.891096
1153.000000	83.957634
1152.000000	84.106163
1151.000000	84.307057
1150.000000	84.497348
1149.000000	84.616641
1148.000000	84.633751
1147.000000	84.558675
1146.000000	84.436066
1145.000000	84.317281
1144.000000	84.233071
1143.000000	84.194087
1142.000000	84.209917
1141.000000	84.294923
1140.000000	84.454383
1139.000000	84.673405
1138.000000	84.921406
1137.000000	85.162347
1136.000000	85.363723
1135.000000	85.509744
1134.000000	85.612360
1133.000000	85.700566
1132.000000	85.792911
1131.000000	85.884858
1130.000000	85.962748
1129.000000	86.021298
1128.000000	86.064459
1127.000000	86.096774
1126.000000	86.118183
1125.000000	86.123023
1124.000000	86.103831
1123.000000	86.061561
1122.000000	86.010428
1121.000000	85.964381
1120.000000	85.919488
1119.000000	85.858889
1118.000000	85.776608
1117.000000	85.688963
1116.000000	85.620131
1115.000000	85.581142
1114.000000	85.563381
1113.000000	85.549548
1112.000000	85.532279
1111.000000	85.523742
1110.000000	85.541942
1109.000000	85.585790
1108.000000	85.632700
1107.000000	85.666087
1106.000000	85.693101
1105.000000	85.722684
1104.000000	85.737258
1103.000000	85.703307
1102.000000	85.603457
1101.000000	85.441257
1100.000000	85.219832
1099.000000	84.937564
1098.000000	84.602168
1097.000000	84.228490
1096.000000	83.827376
1095.000000	83.419708
1094.000000	83.058445
1093.000000	82.803701
1092.000000	82.661301
1091.000000	82.566817
1090.000000	82.454443
1089.000000	82.340736
1088.000000	82.326299
1087.000000	82.512053
1086.000000	82.916144
1085.000000	83.465294
1084.000000	84.051725
1083.000000	84.592214
1082.000000	85.047099
1081.000000	85.405673
1080.000000	85.669943
1079.000000	85.855745
1078.000000	85.993566
1077.000000	86.107322
1076.000000	86.191742
1075.000000	86.221996
1074.000000	86.179884
1073.000000	86.055085
1072.000000	85.831673
1071.000000	85.507721
1070.000000	85.138306
1069.000000	84.832974
1068.000000	84.689895
1067.000000	84.732043
1066.000000	84.902508
1065.000000	85.108146
1064.000000	85.266993
1063.000000	85.335371
1062.000000	85.313090
1061.000000	85.228854
1060.000000	85.122873
1059.000000	85.045812
1058.000000	85.056699
1057.000000	85.191753
1056.000000	85.427382
1055.000000	85.685223
1054.000000	85.868537
1053.000000	85.874201
1052.000000	85.587263
1051.000000	84.937078
1050.000000	84.010625
1049.000000	83.076303
1048.000000	82.440645
1047.000000	82.272273
1046.000000	82.554043
1045.000000	83.153505
1044.000000	83.898021
1043.000000	84.613508
1042.000000	85.170425
1041.000000	85.532151
1040.000000	85.743926
1039.000000	85.866356
1038.000000	85.929324
1037.000000	85.937853
1036.000000	85.890304
1035.000000	85.782634
1034.000000	85.616576
1033.000000	85.415872
1032.000000	85.224716
1031.000000	85.084315
1030.000000	85.016183
1029.000000	85.025692
1028.000000	85.109312
1027.000000	85.254979
1026.000000	85.443721
1025.000000	85.652990
1024.000000	85.854913
1023.000000	86.019719
1022.000000	86.133152
1021.000000	86.204056
1020.000000	86.241433
1019.000000	86.230631
1018.000000	86.147171
1017.000000	85.989720
1016.000000	85.787584
1015.000000	85.583122
1014.000000	85.417542
1013.000000	85.319551
1012.000000	85.284940
1011.000000	85.269507
1010.000000	85.222052
1009.000000	85.130045
1008.000000	85.029461
1007.000000	84.981988
1006.000000	85.050413
1005.000000	85.269484
1004.000000	85.608797
1003.000000	85.973958
1002.000000	86.274577
1001.000000	86.488535
1000.000000	86.645999
999.000000	 86.779357
998.000000	 86.906752
997.000000	 86.988592
996.000000	 86.815482
995.000000	 86.021146
994.000000	 84.421431
993.000000	 82.424797
992.000000	 80.954027
991.000000	 80.770437
990.000000	 81.840471
989.000000	 83.431983
988.000000	 84.792878
987.000000	 85.640834
986.000000	 86.080448
985.000000	 86.278856
984.000000	 86.332373
983.000000	 86.326055
982.000000	 86.353414
981.000000	 86.455083
980.000000	 86.604322
979.000000	 86.761147
978.000000	 86.898924
977.000000	 86.975503
976.000000	 86.903944
975.000000	 86.539268
974.000000	 85.671917
973.000000	 84.086682
972.000000	 81.743826
971.000000	 78.971125
970.000000	 76.431819
969.000000	 74.805701
968.000000	 74.425828
967.000000	 75.147608
966.000000	 76.505355
965.000000	 78.010872
964.000000	 79.372820
963.000000	 80.514740
962.000000	 81.463741
961.000000	 82.256898
960.000000	 82.922668
959.000000	 83.487283
958.000000	 83.958190
957.000000	 84.302977
956.000000	 84.452508
955.000000	 84.314303
954.000000	 83.785932
953.000000	 82.806843
952.000000	 81.463571
951.000000	 80.049810
950.000000	 78.948943
949.000000	 78.382217
948.000000	 78.260518
947.000000	 78.298383
946.000000	 78.279119
945.000000	 78.219355
944.000000	 78.301543
943.000000	 78.674082
942.000000	 79.318608
941.000000	 80.084045
940.000000	 80.815453
939.000000	 81.441839
938.000000	 81.970049
937.000000	 82.431344
936.000000	 82.844499
935.000000	 83.213440
934.000000	 83.538796
933.000000	 83.824208
932.000000	 84.075331
931.000000	 84.296737
930.000000	 84.490405
929.000000	 84.657649
928.000000	 84.803138
927.000000	 84.934307
926.000000	 85.052615
925.000000	 85.146934
924.000000	 85.203275
923.000000	 85.225233
922.000000	 85.239585
921.000000	 85.274770
920.000000	 85.335101
919.000000	 85.401056
918.000000	 85.453431
917.000000	 85.490094
916.000000	 85.517787
915.000000	 85.536787
914.000000	 85.542350
913.000000	 85.538519
912.000000	 85.541068
911.000000	 85.562872
910.000000	 85.600092
909.000000	 85.636385
908.000000	 85.659589
907.000000	 85.671746
906.000000	 85.684097
905.000000	 85.706429
904.000000	 85.742732
903.000000	 85.792656
902.000000	 85.848768
901.000000	 85.887997
900.000000	 85.873362
899.000000	 85.781244
898.000000	 85.636574
897.000000	 85.511910
896.000000	 85.475461
895.000000	 85.532988
894.000000	 85.621730
893.000000	 85.660101
892.000000	 85.602502
891.000000	 85.459753
890.000000	 85.289630
889.000000	 85.171157
888.000000	 85.165261
887.000000	 85.277192
886.000000	 85.454939
885.000000	 85.632726
884.000000	 85.776620
883.000000	 85.889361
882.000000	 85.986966
881.000000	 86.083223
880.000000	 86.186834
879.000000	 86.297597
878.000000	 86.407916
877.000000	 86.517728
876.000000	 86.639922
875.000000	 86.777515
874.000000	 86.904307
873.000000	 86.987584
872.000000	 87.026572
871.000000	 87.049846
870.000000	 87.077335
869.000000	 87.105480
868.000000	 87.130987
867.000000	 87.166957
866.000000	 87.225441
865.000000	 87.297972
864.000000	 87.362961
863.000000	 87.404086
862.000000	 87.416952
861.000000	 87.408340
860.000000	 87.395634
859.000000	 87.398244
858.000000	 87.421896
857.000000	 87.455497
856.000000	 87.484142
855.000000	 87.496170
854.000000	 87.478752
853.000000	 87.423284
852.000000	 87.341913
851.000000	 87.265654
850.000000	 87.218234
849.000000	 87.201802
848.000000	 87.210878
847.000000	 87.241470
846.000000	 87.277267
845.000000	 87.288231
844.000000	 87.263194
843.000000	 87.232987
842.000000	 87.242292
841.000000	 87.304360
840.000000	 87.396839
839.000000	 87.490896
838.000000	 87.565592
837.000000	 87.603355
836.000000	 87.598666
835.000000	 87.576317
834.000000	 87.580729
833.000000	 87.635851
832.000000	 87.724241
831.000000	 87.809845
830.000000	 87.873030
829.000000	 87.920010
828.000000	 87.966045
827.000000	 88.016143
826.000000	 88.060660
825.000000	 88.087430
824.000000	 88.095771
823.000000	 88.091824
822.000000	 88.068030
821.000000	 87.996660
820.000000	 87.848072
819.000000	 87.606232
818.000000	 87.268703
817.000000	 86.857482
816.000000	 86.447830
815.000000	 86.165645
814.000000	 86.118742
813.000000	 86.320139
812.000000	 86.688170
811.000000	 87.115694
810.000000	 87.529579
809.000000	 87.900204
808.000000	 88.225427
807.000000	 88.515296
806.000000	 88.774754
805.000000	 88.985049
804.000000	 89.098637
803.000000	 89.051009
802.000000	 88.782340
801.000000	 88.259715
800.000000	 87.466543
799.000000	 86.320514
798.000000	 84.585534
797.000000	 81.972614
796.000000	 78.503091
795.000000	 74.830523
794.000000	 72.066488
793.000000	 71.101364
792.000000	 72.013911
791.000000	 74.112843
790.000000	 76.498679
789.000000	 78.583525
788.000000	 80.195066
787.000000	 81.384940
786.000000	 82.253476
785.000000	 82.894285
784.000000	 83.374654
783.000000	 83.714196
782.000000	 83.904274
781.000000	 83.956771
780.000000	 83.909376
779.000000	 83.780260
778.000000	 83.547846
777.000000	 83.188948
776.000000	 82.715989
775.000000	 82.166936
774.000000	 81.585262
773.000000	 81.026639
772.000000	 80.548093
771.000000	 80.132684
770.000000	 79.615233
769.000000	 78.728246
768.000000	 77.268073
767.000000	 75.240170
766.000000	 72.870080
765.000000	 70.511932
764.000000	 68.547825
763.000000	 67.303647
762.000000	 66.957767
761.000000	 67.449896
760.000000	 68.427010
759.000000	 69.289553
758.000000	 69.425224
757.000000	 68.590357
756.000000	 67.153585
755.000000	 65.903269
754.000000	 65.499983
753.000000	 66.057234
752.000000	 67.217870
751.000000	 68.548827
750.000000	 69.805685
749.000000	 70.902889
748.000000	 71.793248
747.000000	 72.453352
746.000000	 72.928652
745.000000	 73.314091
744.000000	 73.682128
743.000000	 74.049369
742.000000	 74.398889
741.000000	 74.710921
740.000000	 74.981185
739.000000	 75.232844
738.000000	 75.510882
737.000000	 75.851182
736.000000	 76.252545
735.000000	 76.680203
734.000000	 77.088529
733.000000	 77.435494
732.000000	 77.687624
731.000000	 77.827471
730.000000	 77.855976
729.000000	 77.777695
728.000000	 77.584254
727.000000	 77.260876
726.000000	 76.813347
725.000000	 76.287328
724.000000	 75.757275
723.000000	 75.290968
722.000000	 74.925646
721.000000	 74.685877
720.000000	 74.622477
719.000000	 74.810546
718.000000	 75.287611
717.000000	 75.996811
716.000000	 76.792751
715.000000	 77.500305
714.000000	 77.984803
713.000000	 78.190541
712.000000	 78.134766
711.000000	 77.881218
710.000000	 77.515144
709.000000	 77.132102
708.000000	 76.846004
707.000000	 76.786813
706.000000	 77.048089
705.000000	 77.611022
704.000000	 78.333548
703.000000	 79.041643
702.000000	 79.640315
701.000000	 80.137100
700.000000	 80.580715
699.000000	 80.996498
698.000000	 81.364929
697.000000	 81.637667
696.000000	 81.773827
695.000000	 81.767754
694.000000	 81.634055
693.000000	 81.373760
692.000000	 80.995757
691.000000	 80.589621
690.000000	 80.335621
689.000000	 80.382999
688.000000	 80.704554
687.000000	 81.115046
686.000000	 81.447305
685.000000	 81.664552
684.000000	 81.809696
683.000000	 81.917739
682.000000	 81.999691
681.000000	 82.065419
680.000000	 82.130324
679.000000	 82.212114
678.000000	 82.327042
677.000000	 82.465323
676.000000	 82.580724
675.000000	 82.641157
674.000000	 82.680851
673.000000	 82.761024
672.000000	 82.886001
671.000000	 82.987477
670.000000	 82.979518
669.000000	 82.805723
668.000000	 82.632246
667.000000	 82.627682
666.000000	 82.587525
665.000000	 82.405111
664.000000	 82.163617
663.000000	 81.875450
662.000000	 81.503580
661.000000	 81.007374
660.000000	 80.401951
659.000000	 79.792213
658.000000	 79.352239
657.000000	 79.216814
656.000000	 79.411638
655.000000	 79.878683
654.000000	 80.525346
653.000000	 81.253008
652.000000	 81.950712
651.000000	 82.499823
650.000000	 82.848048
649.000000	 83.057676
648.000000	 83.214747
647.000000	 83.324154
646.000000	 83.354078
645.000000	 83.333658
644.000000	 83.324790
643.000000	 83.323781
642.000000	 83.274248
641.000000	 83.175107
640.000000	 83.094259
639.000000	 83.061551
638.000000	 83.023911
637.000000	 82.935255
636.000000	 82.826659
635.000000	 82.756128
634.000000	 82.745181
633.000000	 82.798286
632.000000	 82.930602
631.000000	 83.132290
630.000000	 83.350476
629.000000	 83.544633
628.000000	 83.716968
627.000000	 83.869492
626.000000	 83.998109
625.000000	 84.146748
624.000000	 84.376306
623.000000	 84.647150
622.000000	 84.836555
621.000000	 84.890953
620.000000	 84.771723
619.000000	 84.156912
618.000000	 82.471762
617.000000	 79.590133
616.000000	 76.460305
615.000000	 74.589708
614.000000	 74.722869
613.000000	 76.305374
612.000000	 78.228071
611.000000	 79.737792
610.000000	 80.679845
609.000000	 81.216407
608.000000	 81.540567
607.000000	 81.805911
606.000000	 82.102373
605.000000	 82.419841
604.000000	 82.707666
603.000000	 82.971345
602.000000	 83.256364
601.000000	 83.558054
600.000000	 83.808536

